Data from Subt2_19-21-27-564.txt Node
Date: Fri Nov 22 19:21:27 IRKT 2019
User: Ecophotonics_1
Spectrometer: QEP00701
Autoset integration time: false
Trigger mode: 4
Integration Time (sec): 2,000000E-2
Scans to average: 1
Electric dark correction enabled: true
Nonlinearity correction enabled: false
Boxcar width: 0
XAxis mode: Wavelengths
Stop averaging: false
Number of Pixels in Spectrum: 1044
>>>>>Begin Spectral Data<<<<<
347,149	0,38
347,94	0,38
348,731	-0,62
349,522	0,38
350,313	3,38
351,104	-1,62
351,895	-0,62
352,685	-1,62
353,476	4,38
354,267	0,38
355,057	6,38
355,848	-4,62
356,638	-2,62
357,428	-1,62
358,219	1,38
359,009	4,38
359,799	2,38
360,589	1,38
361,379	2,38
362,169	1,38
362,959	2,38
363,749	-0,62
364,538	-2,62
365,328	-4,62
366,118	0,38
366,907	-7,62
367,697	2,38
368,486	0,38
369,275	-5,62
370,065	0,38
370,854	-7,62
371,643	1,38
372,432	-1,62
373,221	0,38
374,01	1,38
374,799	4,38
375,588	-5,62
376,376	4,38
377,165	-1,62
377,954	4,38
378,742	0,38
379,531	-5,62
380,319	1,38
381,107	0,38
381,896	-1,62
382,684	-4,62
383,472	-4,62
384,26	-2,62
385,048	-2,62
385,836	1,38
386,624	6,38
387,412	2,38
388,199	-1,62
388,987	0,38
389,775	0,38
390,562	-0,62
391,35	5,38
392,137	6,38
392,925	-1,62
393,712	-2,62
394,499	-5,62
395,286	2,38
396,073	-2,62
396,86	-0,62
397,647	4,38
398,434	-4,62
399,221	2,38
400,008	3,38
400,794	-2,62
401,581	-0,62
402,367	-0,62
403,154	-1,62
403,94	5,38
404,727	2,38
405,513	3,38
406,299	-3,62
407,085	1,38
407,871	0,38
408,657	-1,62
409,443	0,38
410,229	-2,62
411,015	2,38
411,801	-0,62
412,586	4,38
413,372	-2,62
414,158	-2,62
414,943	1,38
415,729	0,38
416,514	-0,62
417,299	2,38
418,084	3,38
418,869	-3,62
419,655	0,38
420,44	1,38
421,224	2,38
422,009	-1,62
422,794	3,38
423,579	5,38
424,364	-1,62
425,148	3,38
425,933	2,38
426,717	0,38
427,502	0,38
428,286	-3,62
429,07	1,38
429,854	-2,62
430,638	2,38
431,422	-2,62
432,206	0,38
432,99	-4,62
433,774	2,38
434,558	-3,62
435,342	2,38
436,125	4,38
436,909	0,38
437,693	2,38
438,476	1,38
439,259	1,38
440,043	0,38
440,826	3,38
441,609	2,38
442,392	3,38
443,175	-6,62
443,958	-1,62
444,741	-0,62
445,524	1,38
446,307	6,38
447,089	1,38
447,872	3,38
448,655	2,38
449,437	-1,62
450,22	3,38
451,002	0,38
451,784	0,38
452,566	5,38
453,349	0,38
454,131	-2,62
454,913	-3,62
455,695	0,38
456,477	-2,62
457,258	1,38
458,04	3,38
458,822	-0,62
459,603	4,38
460,385	-1,62
461,166	-3,62
461,948	0,38
462,729	-4,62
463,51	1,38
464,292	2,38
465,073	-4,62
465,854	1,38
466,635	-2,62
467,416	1,38
468,197	-1,62
468,977	1,38
469,758	-1,62
470,539	2,38
471,319	2,38
472,1	-1,62
472,88	2,38
473,661	-1,62
474,441	-0,62
475,221	-4,62
476,001	4,38
476,781	1,38
477,561	-0,62
478,341	-2,62
479,121	5,38
479,901	1,38
480,681	-1,62
481,461	4,38
482,24	-1,62
483,02	0,38
483,799	-2,62
484,579	-2,62
485,358	4,38
486,137	-2,62
486,916	-0,62
487,696	1,38
488,475	0,38
489,254	0,38
490,033	4,38
490,811	4,38
491,59	-0,62
492,369	0,38
493,148	-0,62
493,926	3,38
494,705	4,38
495,483	0,38
496,261	-1,62
497,04	3,38
497,818	-0,62
498,596	-0,62
499,374	7,38
500,152	1,38
500,93	3,38
501,708	2,38
502,486	4,38
503,264	-0,62
504,041	2,38
504,819	4,38
505,596	3,38
506,374	4,38
507,151	-1,62
507,929	3,38
508,706	1,38
509,483	5,38
510,26	2,38
511,037	2,38
511,814	6,38
512,591	8,38
513,368	-2,62
514,145	3,38
514,921	2,38
515,698	0,38
516,475	2,38
517,251	0,38
518,027	6,38
518,804	5,38
519,58	3,38
520,356	3,38
521,132	8,38
521,908	5,38
522,684	4,38
523,46	3,38
524,236	6,38
525,012	13,38
525,788	4,38
526,563	7,38
527,339	6,38
528,114	17,38
528,89	9,38
529,665	12,38
530,441	19,38
531,216	21,38
531,991	16,38
532,766	19,38
533,541	16,38
534,316	18,38
535,091	23,38
535,866	23,38
536,64	28,38
537,415	36,38
538,19	37,38
538,964	43,38
539,739	46,38
540,513	52,38
541,287	57,38
542,061	59,38
542,836	60,38
543,61	68,38
544,384	76,38
545,158	80,38
545,932	78,38
546,705	94,38
547,479	101,38
548,253	124,38
549,026	126,38
549,8	141,38
550,573	152,38
551,347	159,38
552,12	162,38
552,893	194,38
553,666	209,38
554,44	239,38
555,213	261,38
555,986	277,38
556,758	303,38
557,531	340,38
558,304	383,38
559,077	413,38
559,849	443,38
560,622	489,38
561,394	524,38
562,167	602,38
562,939	624,38
563,711	702,38
564,483	768,38
565,255	824,38
566,027	918,38
566,799	999,38
567,571	1120,38
568,343	1178,38
569,115	1346,38
569,887	1466,38
570,658	1608,38
571,43	1763,38
572,201	1919,38
572,972	2124,38
573,744	2302,38
574,515	2547,38
575,286	2767,38
576,057	3055,38
576,828	3370,38
577,599	3691,38
578,37	4119,38
579,141	4502,38
579,912	4941,38
580,682	5402,38
581,453	5982,38
582,224	6553,38
582,994	7295,38
583,764	7982,38
584,535	8781,38
585,305	9603,38
586,075	10443,38
586,845	11277,38
587,615	12249,38
588,385	13240,38
589,155	14139,38
589,925	14847,38
590,695	15366,38
591,464	15676,38
592,234	15863,38
593,003	15936,38
593,773	15642,38
594,542	14938,38
595,311	13916,38
596,081	12860,38
596,85	11643,38
597,619	10630,38
598,388	9329,38
599,157	8198,38
599,926	7187,38
600,694	6278,38
601,463	5530,38
602,232	4929,38
603	4403,38
603,769	3962,38
604,537	3506,38
605,306	3083,38
606,074	2728,38
606,842	2424,38
607,61	2138,38
608,378	1898,38
609,146	1677,38
609,914	1434,38
610,682	1270,38
611,45	1105,38
612,218	948,38
612,985	847,38
613,753	730,38
614,52	641,38
615,288	564,38
616,055	507,38
616,822	442,38
617,59	391,38
618,357	363,38
619,124	334,38
619,891	291,38
620,658	264,38
621,424	236,38
622,191	215,38
622,958	208,38
623,724	181,38
624,491	164,38
625,257	148,38
626,024	141,38
626,79	134,38
627,556	123,38
628,323	116,38
629,089	107,38
629,855	94,38
630,621	94,38
631,387	85,38
632,152	85,38
632,918	80,38
633,684	79,38
634,449	76,38
635,215	72,38
635,98	71,38
636,746	70,38
637,511	67,38
638,276	62,38
639,041	65,38
639,806	56,38
640,571	58,38
641,336	58,38
642,101	55,38
642,866	49,38
643,631	51,38
644,395	52,38
645,16	48,38
645,924	40,38
646,689	41,38
647,453	44,38
648,217	42,38
648,981	39,38
649,746	42,38
650,51	37,38
651,274	35,38
652,037	36,38
652,801	33,38
653,565	30,38
654,329	30,38
655,092	26,38
655,856	27,38
656,619	31,38
657,383	31,38
658,146	26,38
658,909	29,38
659,672	23,38
660,435	20,38
661,198	20,38
661,961	15,38
662,724	22,38
663,487	24,38
664,25	24,38
665,012	25,38
665,775	22,38
666,537	15,38
667,3	19,38
668,062	14,38
668,824	18,38
669,587	23,38
670,349	11,38
671,111	22,38
671,873	15,38
672,635	13,38
673,396	21,38
674,158	21,38
674,92	16,38
675,681	14,38
676,443	21,38
677,204	16,38
677,966	14,38
678,727	16,38
679,488	19,38
680,249	12,38
681,01	13,38
681,771	16,38
682,532	15,38
683,293	8,38
684,054	14,38
684,815	11,38
685,575	15,38
686,336	15,38
687,096	14,38
687,857	14,38
688,617	15,38
689,377	15,38
690,137	8,38
690,898	13,38
691,658	13,38
692,417	8,38
693,177	17,38
693,937	13,38
694,697	13,38
695,457	14,38
696,216	10,38
696,976	19,38
697,735	10,38
698,494	7,38
699,254	9,38
700,013	13,38
700,772	12,38
701,531	6,38
702,29	9,38
703,049	13,38
703,808	9,38
704,566	6,38
705,325	9,38
706,084	11,38
706,842	6,38
707,601	4,38
708,359	9,38
709,117	12,38
709,875	8,38
710,634	4,38
711,392	12,38
712,15	8,38
712,908	9,38
713,665	13,38
714,423	8,38
715,181	7,38
715,938	6,38
716,696	6,38
717,453	6,38
718,211	5,38
718,968	7,38
719,725	5,38
720,483	4,38
721,24	8,38
721,997	6,38
722,754	8,38
723,51	2,38
724,267	5,38
725,024	8,38
725,78	3,38
726,537	4,38
727,293	3,38
728,05	9,38
728,806	2,38
729,562	4,38
730,319	6,38
731,075	3,38
731,831	5,38
732,587	4,38
733,343	-2,62
734,098	6,38
734,854	6,38
735,61	5,38
736,365	5,38
737,121	4,38
737,876	2,38
738,631	3,38
739,387	1,38
740,142	4,38
740,897	0,38
741,652	7,38
742,407	-2,62
743,162	6,38
743,917	4,38
744,671	3,38
745,426	2,38
746,18	6,38
746,935	1,38
747,689	0,38
748,444	2,38
749,198	8,38
749,952	6,38
750,706	2,38
751,46	4,38
752,214	0,38
752,968	-1,62
753,722	5,38
754,476	0,38
755,229	4,38
755,983	4,38
756,736	1,38
757,49	2,38
758,243	-1,62
758,996	2,38
759,75	2,38
760,503	-4,62
761,256	0,38
762,009	1,38
762,761	-0,62
763,514	2,38
764,267	7,38
765,02	3,38
765,772	4,38
766,525	1,38
767,277	3,38
768,029	2,38
768,782	5,38
769,534	3,38
770,286	2,38
771,038	2,38
771,79	5,38
772,542	-1,62
773,294	0,38
774,045	-1,62
774,797	0,38
775,548	2,38
776,3	1,38
777,051	-0,62
777,803	1,38
778,554	1,38
779,305	4,38
780,056	1,38
780,807	-1,62
781,558	1,38
782,309	5,38
783,06	4,38
783,811	0,38
784,561	2,38
785,312	5,38
786,062	5,38
786,813	3,38
787,563	2,38
788,313	4,38
789,063	0,38
789,813	3,38
790,563	2,38
791,313	4,38
792,063	1,38
792,813	4,38
793,563	2,38
794,312	4,38
795,062	5,38
795,811	1,38
796,561	0,38
797,31	6,38
798,059	5,38
798,808	5,38
799,557	3,38
800,306	5,38
801,055	4,38
801,804	8,38
802,553	2,38
803,302	1,38
804,05	3,38
804,799	5,38
805,547	4,38
806,295	6,38
807,044	4,38
807,792	2,38
808,54	4,38
809,288	2,38
810,036	4,38
810,784	5,38
811,532	3,38
812,28	9,38
813,027	11,38
813,775	2,38
814,522	6,38
815,27	8,38
816,017	12,38
816,764	10,38
817,512	10,38
818,259	17,38
819,006	8,38
819,753	4,38
820,499	7,38
821,246	2,38
821,993	3,38
822,74	7,38
823,486	11,38
824,233	8,38
824,979	8,38
825,725	13,38
826,472	10,38
827,218	14,38
827,964	13,38
828,71	14,38
829,456	13,38
830,202	10,38
830,947	15,38
831,693	21,38
832,439	13,38
833,184	12,38
833,93	8,38
834,675	13,38
835,42	17,38
836,166	22,38
836,911	19,38
837,656	19,38
838,401	23,38
839,146	23,38
839,89	14,38
840,635	24,38
841,38	27,38
842,124	20,38
842,869	24,38
843,613	31,38
844,358	23,38
845,102	26,38
845,846	28,38
846,59	30,38
847,334	28,38
848,078	30,38
848,822	25,38
849,566	27,38
850,31	29,38
851,053	33,38
851,797	26,38
852,54	32,38
853,284	37,38
854,027	35,38
854,77	29,38
855,513	43,38
856,256	35,38
856,999	35,38
857,742	36,38
858,485	40,38
859,228	33,38
859,971	43,38
860,713	46,38
861,456	49,38
862,198	42,38
862,94	41,38
863,683	43,38
864,425	40,38
865,167	40,38
865,909	47,38
866,651	40,38
867,393	48,38
868,135	43,38
868,876	47,38
869,618	39,38
870,359	46,38
871,101	37,38
871,842	43,38
872,584	44,38
873,325	43,38
874,066	47,38
874,807	40,38
875,548	50,38
876,289	41,38
877,03	43,38
877,771	47,38
878,511	45,38
879,252	48,38
879,992	44,38
880,733	41,38
881,473	43,38
882,213	43,38
882,953	43,38
883,694	40,38
884,434	37,38
885,174	40,38
885,913	34,38
886,653	34,38
887,393	35,38
888,132	39,38
888,872	30,38
889,611	27,38
890,351	35,38
891,09	30,38
891,829	30,38
892,568	34,38
893,308	31,38
894,047	28,38
894,785	28,38
895,524	31,38
896,263	34,38
897,002	28,38
897,74	22,38
898,479	26,38
899,217	27,38
899,955	25,38
900,694	18,38
901,432	25,38
902,17	21,38
902,908	16,38
903,646	20,38
904,384	24,38
905,121	19,38
905,859	17,38
906,597	21,38
907,334	23,38
908,072	23,38
908,809	11,38
909,546	16,38
910,283	13,38
911,02	11,38
911,757	15,38
912,494	14,38
913,231	10,38
913,968	10,38
914,705	12,38
915,441	6,38
916,178	9,38
916,914	8,38
917,651	7,38
918,387	13,38
919,123	8,38
919,859	5,38
920,595	3,38
921,331	11,38
922,067	7,38
922,803	6,38
923,539	6,38
924,274	4,38
925,01	4,38
925,745	9,38
926,481	6,38
927,216	2,38
927,951	9,38
928,686	3,38
929,421	3,38
930,156	6,38
930,891	3,38
931,626	7,38
932,361	6,38
933,096	5,38
933,83	2,38
934,565	1,38
935,299	3,38
936,033	2,38
936,768	5,38
937,502	2,38
938,236	9,38
938,97	8,38
939,704	3,38
940,438	0,38
941,171	6,38
941,905	0,38
942,638	7,38
943,372	1,38
944,105	4,38
944,839	8,38
945,572	2,38
946,305	0,38
947,038	2,38
947,771	0,38
948,504	5,38
949,237	3,38
949,97	7,38
950,702	6,38
951,435	0,38
952,168	2,38
952,9	4,38
953,632	2,38
954,365	4,38
955,097	4,38
955,829	4,38
956,561	-1,62
957,293	0,38
958,025	-1,62
958,756	3,38
959,488	3,38
960,22	6,38
960,951	1,38
961,683	1,38
962,414	1,38
963,145	2,38
963,876	4,38
964,608	4,38
965,339	6,38
966,069	3,38
966,8	5,38
967,531	4,38
968,262	0,38
968,992	6,38
969,723	5,38
970,453	3,38
971,184	-1,62
971,914	3,38
972,644	0,38
973,374	7,38
974,104	4,38
974,834	2,38
975,564	-2,62
976,294	2,38
977,023	1,38
977,753	4,38
978,483	5,38
979,212	-4,62
979,941	4,38
980,671	1,38
981,4	5,38
982,129	1,38
982,858	4,38
983,587	0,38
984,316	0,38
985,045	-1,62
985,773	0,38
986,502	5,38
987,23	-1,62
987,959	3,38
988,687	2,38
989,415	5,38
990,144	8,38
990,872	5,38
991,6	-0,62
992,328	2,38
993,055	3,38
993,783	3,38
994,511	-4,62
995,238	4,38
995,966	5,38
996,693	3,38
997,421	2,38
998,148	8,38
998,875	3,38
999,602	8,38
1000,329	3,38
1001,056	2,38
1001,783	3,38
1002,51	4,38
1003,236	-0,62
1003,963	2,38
1004,69	1,38
1005,416	9,38
1006,142	3,38
1006,869	4,38
1007,595	3,38
1008,321	-3,62
1009,047	1,38
1009,773	3,38
1010,499	3,38
1011,224	3,38
1011,95	6,38
1012,675	0,38
1013,401	5,38
1014,126	-1,62
1014,852	2,38
1015,577	2,38
1016,302	-1,62
1017,027	-1,62
1017,752	1,38
1018,477	2,38
1019,202	1,38
1019,927	4,38
1020,651	-1,62
1021,376	-2,62
1022,1	5,38
1022,825	-3,62
1023,549	-1,62
1024,273	2,38
1024,997	1,38
1025,721	6,38
1026,445	4,38
1027,169	1,38
1027,893	-1,62
1028,617	-0,62
1029,34	6,38
1030,064	0,38
1030,787	5,38
1031,511	0,38
1032,234	-1,62
1032,957	0,38
1033,68	0,38
1034,403	-2,62
1035,126	1,38
1035,849	5,38
1036,572	-0,62
1037,295	4,38
1038,017	0,38
1038,74	1,38
1039,462	1,38
1040,184	3,38
1040,907	-1,62
1041,629	4,38
1042,351	-4,62
1043,073	-0,62
1043,795	4,38
1044,517	3,38
1045,238	-0,62
1045,96	3,38
1046,682	-4,62
1047,403	3,38
1048,125	-1,62
1048,846	0,38
1049,567	0,38
1050,288	-2,62
1051,009	-0,62
1051,73	-0,62
1052,451	-0,62
1053,172	-0,62
1053,893	1,38
1054,613	-2,62
1055,334	2,38
1056,054	-0,62
1056,775	-0,62
1057,495	1,38
1058,215	-2,62
1058,935	6,38
1059,656	-1,62
1060,375	-1,62
1061,095	2,38
1061,815	1,38
1062,535	1,38
1063,254	3,38
1063,974	3,38
1064,693	1,38
1065,413	0,38
1066,132	0,38
1066,851	0,38
1067,57	0,38
1068,289	-0,62
1069,008	-2,62
1069,727	1,38
1070,446	-1,62
1071,164	-2,62
1071,883	3,38
1072,601	-0,62
1073,32	6,38
1074,038	-0,62
1074,756	5,38
1075,475	-4,62
1076,193	-0,62
1076,911	0,38
1077,628	2,38
1078,346	-3,62
1079,064	4,38
1079,782	4,38
1080,499	3,38
1081,217	2,38
1081,934	9,38
1082,651	0,38
1083,368	1,38
1084,085	4,38
1084,803	0,38
1085,519	4,38
1086,236	6,38
1086,953	8,38
1087,67	6,38
1088,386	4,38
1089,103	8,38
1089,819	8,38
1090,536	4,38
1091,252	8,38
1091,968	8,38
1092,684	9,38
1093,4	11,38
1094,116	10,38
1094,832	11,38
1095,547	4,38
1096,263	5,38
1096,979	7,38
1097,694	3,38
1098,409	8,38
1099,125	10,38
1099,84	10,38
1100,555	12,38
1101,27	13,38
1101,985	6,38
1102,7	9,38
1103,414	18,38
1104,129	7,38
1104,844	7,38
1105,558	8,38
1106,273	7,38
1106,987	10,38
1107,701	7,38
1108,415	8,38
1109,129	8,38
1109,843	10,38
1110,557	13,38
1111,271	7,38
1111,985	14,38
1112,698	9,38
1113,412	9,38
1114,125	8,38
1114,839	9,38
1115,552	8,38
1116,265	9,38
1116,978	5,38
1117,691	10,38
1118,404	11,38
1119,117	4,38
1119,83	8,38
1120,542	10,38
1121,255	9,38
1121,967	10,38
1122,68	10,38
1123,392	8,38
1124,104	9,38
1124,816	10,38
1125,529	12,38
1126,24	9,38
1126,952	16,38
1127,664	7,38
1128,376	4,38
1129,087	6,38
1129,799	5,38
1130,51	1,38
1131,222	1,38
1131,933	-2,62
1132,644	-0,62
